intensity,label
820,0
905,0
940,0
1020,0
1090,0
1155,0
1210,0
1285,0
1320,0
1390,0
1450,0
1505,0
1580,0
1625,0
1690,0
1725,0
1760,0
1795,0
845,0
1180,0
1930,1
2005,1
2050,1
2130,1
2185,1
2250,1
2300,1
2385,1
2425,1
2480,1
2550,1
2605,1
2655,1
2720,1
2760,1
2810,1
1965,1
2080,1
2900,2
2980,2
3050,2
3150,2
3220,2
3305,2
3450,2
3580,2
3690,2
3780,2
3855,2
3920,2
4010,2
4095,2
2975,2
3520,2
